Height (nm):	34.000000
Position (nm)	Voltage (mV)
-5100.000000	0.295010
-5089.800000	0.301846
-5079.600000	0.287927
-5069.400000	0.295802
-5059.200000	0.299319
-5049.000000	0.307124
-5038.800000	0.299184
-5028.600000	0.310382
-5018.400000	0.311109
-5008.200000	0.298658
-4998.000000	0.319814
-4987.800000	0.305486
-4977.600000	0.313752
-4967.400000	0.310254
-4957.200000	0.321845
-4947.000000	0.330348
-4936.800000	0.335332
-4926.600000	0.331692
-4916.400000	0.325071
-4906.200000	0.326706
-4896.000000	0.329810
-4885.800000	0.340554
-4875.600000	0.336282
-4865.400000	0.348865
-4855.200000	0.346654
-4845.000000	0.347467
-4834.800000	0.346137
-4824.600000	0.342984
-4814.400000	0.350581
-4804.200000	0.361281
-4794.000000	0.360321
-4783.800000	0.365587
-4773.600000	0.361891
-4763.400000	0.371051
-4753.200000	0.362890
-4743.000000	0.376406
-4732.800000	0.386461
-4722.600000	0.383434
-4712.400000	0.390329
-4702.200000	0.383533
-4692.000000	0.395817
-4681.800000	0.397712
-4671.600000	0.411951
-4661.400000	0.407148
-4651.200000	0.410376
-4641.000000	0.414200
-4630.800000	0.437677
-4620.600000	0.421362
-4610.400000	0.423858
-4600.200000	0.424403
-4590.000000	0.436093
-4579.800000	0.432354
-4569.600000	0.438408
-4559.400000	0.439046
-4549.200000	0.448554
-4539.000000	0.450978
-4528.800000	0.457348
-4518.600000	0.458374
-4508.400000	0.471662
-4498.200000	0.483003
-4488.000000	0.475685
-4477.800000	0.467402
-4467.600000	0.508835
-4457.400000	0.524559
-4447.200000	0.503756
-4437.000000	0.502288
-4426.800000	0.517901
-4416.600000	0.528202
-4406.400000	0.531177
-4396.200000	0.530471
-4386.000000	0.543208
-4375.800000	0.557452
-4365.600000	0.544493
-4355.400000	0.571868
-4345.200000	0.572369
-4335.000000	0.567571
-4324.800000	0.592431
-4314.600000	0.590627
-4304.400000	0.600677
-4294.200000	0.611727
-4284.000000	0.642222
-4273.800000	0.623665
-4263.600000	0.654419
-4253.400000	0.674887
-4243.200000	0.679324
-4233.000000	0.692141
-4222.800000	0.690106
-4212.600000	0.716457
-4202.400000	0.736174
-4192.200000	0.734397
-4182.000000	0.743367
-4171.800000	0.785623
-4161.600000	0.788575
-4151.400000	0.786255
-4141.200000	0.814831
-4131.000000	0.830328
-4120.800000	0.861596
-4110.600000	0.883066
-4100.400000	0.882027
-4090.200000	0.893967
-4080.000000	0.973401
-4069.800000	0.907016
-4059.600000	1.010331
-4049.400000	1.025414
-4039.200000	1.052719
-4029.000000	1.103250
-4018.800000	1.121790
-4008.600000	1.166483
-3998.400000	1.234853
-3988.200000	1.311675
-3978.000000	1.328051
-3967.800000	1.365566
-3957.600000	1.440415
-3947.400000	1.500705
-3937.200000	1.539759
-3927.000000	1.702971
-3916.800000	1.693575
-3906.600000	1.820019
-3896.400000	1.933145
-3886.200000	2.009463
-3876.000000	2.219868
-3865.800000	2.373067
-3855.600000	2.501582
-3845.400000	2.859042
-3835.200000	2.960401
-3825.000000	3.448606
-3814.800000	3.882264
-3804.600000	4.416988
-3794.400000	4.915496
-3784.200000	5.610061
-3774.000000	6.548342
-3763.800000	7.699724
-3753.600000	8.463429
-3743.400000	9.470257
-3733.200000	10.237896
-3723.000000	10.496290
-3712.800000	10.309706
-3702.600000	10.230270
-3692.400000	10.699917
-3682.200000	10.715410
-3672.000000	10.320119
-3661.800000	10.591436
-3651.600000	10.282593
-3641.400000	10.495533
-3631.200000	10.913664
-3621.000000	10.514718
-3610.800000	10.582289
-3600.600000	10.392723
-3590.400000	10.494015
-3580.200000	10.855304
-3570.000000	10.567244
-3559.800000	10.143500
-3549.600000	10.734667
-3539.400000	10.353152
-3529.200000	10.899891
-3519.000000	10.582479
-3508.800000	10.730792
-3498.600000	10.769431
-3488.400000	10.605094
-3478.200000	10.860153
-3468.000000	10.431944
-3457.800000	10.345787
-3447.600000	10.307286
-3437.400000	10.818956
-3427.200000	10.662490
-3417.000000	10.514075
-3406.800000	10.502985
-3396.600000	10.641389
-3386.400000	10.612511
-3376.200000	10.718919
-3366.000000	10.764427
-3355.800000	10.902861
-3345.600000	10.579500
-3335.400000	10.753190
-3325.200000	10.695060
-3315.000000	10.573618
-3304.800000	10.496490
-3294.600000	10.463318
-3284.400000	10.565618
-3274.200000	10.044623
-3264.000000	9.984732
-3253.800000	9.057148
-3243.600000	8.521785
-3233.400000	7.090511
-3223.200000	6.063894
-3213.000000	5.353576
-3202.800000	4.764792
-3192.600000	4.118756
-3182.400000	3.744528
-3172.200000	3.363740
-3162.000000	3.057734
-3151.800000	2.756681
-3141.600000	2.593313
-3131.400000	2.430393
-3121.200000	2.292811
-3111.000000	2.160492
-3100.800000	2.078471
-3090.600000	1.968813
-3080.400000	1.936967
-3070.200000	1.805204
-3060.000000	1.785339
-3049.800000	1.749560
-3039.600000	1.738839
-3029.400000	1.729416
-3019.200000	1.622890
-3009.000000	1.660245
-2998.800000	1.645159
-2988.600000	1.646989
-2978.400000	1.711869
-2968.200000	1.702123
-2958.000000	1.706837
-2947.800000	1.711275
-2937.600000	1.759765
-2927.400000	1.876326
-2917.200000	1.920961
-2907.000000	2.000898
-2896.800000	2.026669
-2886.600000	2.259729
-2876.400000	2.260415
-2866.200000	2.478816
-2856.000000	2.649272
-2845.800000	2.976429
-2835.600000	3.056110
-2825.400000	3.395715
-2815.200000	3.661179
-2805.000000	4.228464
-2794.800000	5.001136
-2784.600000	5.442203
-2774.400000	6.266972
-2764.200000	7.444976
-2754.000000	8.683501
-2743.800000	9.126650
-2733.600000	9.796843
-2723.400000	10.390251
-2713.200000	10.595768
-2703.000000	10.448433
-2692.800000	10.553973
-2682.600000	10.827014
-2672.400000	10.328717
-2662.200000	10.409359
-2652.000000	10.632871
-2641.800000	10.820039
-2631.600000	10.974978
-2621.400000	10.586171
-2611.200000	10.709841
-2601.000000	10.689832
-2590.800000	10.828504
-2580.600000	10.596437
-2570.400000	10.960152
-2560.200000	10.635097
-2550.000000	10.658246
-2539.800000	10.541514
-2529.600000	10.433635
-2519.400000	10.948896
-2509.200000	10.917152
-2499.000000	10.279872
-2488.800000	10.490724
-2478.600000	10.447490
-2468.400000	10.734649
-2458.200000	10.678262
-2448.000000	10.469213
-2437.800000	10.542920
-2427.600000	10.814888
-2417.400000	10.565413
-2407.200000	10.448736
-2397.000000	10.621770
-2386.800000	10.397166
-2376.600000	10.401106
-2366.400000	10.657598
-2356.200000	10.600263
-2346.000000	10.736666
-2335.800000	10.737750
-2325.600000	10.587850
-2315.400000	10.872372
-2305.200000	10.429011
-2295.000000	10.412858
-2284.800000	10.307391
-2274.600000	10.243854
-2264.400000	9.895022
-2254.200000	9.450291
-2244.000000	8.379297
-2233.800000	7.423787
-2223.600000	6.339580
-2213.400000	5.424598
-2203.200000	4.633693
-2193.000000	4.214047
-2182.800000	3.716844
-2172.600000	3.433962
-2162.400000	3.127732
-2152.200000	2.720219
-2142.000000	2.590476
-2131.800000	2.345123
-2121.600000	2.350303
-2111.400000	2.195982
-2101.200000	2.055030
-2091.000000	1.973230
-2080.800000	1.908686
-2070.600000	1.872114
-2060.400000	1.824115
-2050.200000	1.767409
-2040.000000	1.710206
-2029.800000	1.703387
-2019.600000	1.702058
-2009.400000	1.634669
-1999.200000	1.671873
-1989.000000	1.665171
-1978.800000	1.704311
-1968.600000	1.682834
-1958.400000	1.714915
-1948.200000	1.713243
-1938.000000	1.774335
-1927.800000	1.888413
-1917.600000	1.909921
-1907.400000	2.040122
-1897.200000	2.054790
-1887.000000	2.160573
-1876.800000	2.289075
-1866.600000	2.433747
-1856.400000	2.656108
-1846.200000	2.782884
-1836.000000	3.005679
-1825.800000	3.477384
-1815.600000	3.855405
-1805.400000	4.328649
-1795.200000	4.963008
-1785.000000	5.664212
-1774.800000	6.820911
-1764.600000	7.594373
-1754.400000	8.120454
-1744.200000	9.522335
-1734.000000	9.981811
-1723.800000	10.070829
-1713.600000	10.261355
-1703.400000	10.457521
-1693.200000	10.443383
-1683.000000	10.342527
-1672.800000	10.694469
-1662.600000	10.817482
-1652.400000	10.859306
-1642.200000	10.870551
-1632.000000	10.469352
-1621.800000	10.272514
-1611.600000	10.349168
-1601.400000	10.378891
-1591.200000	10.488091
-1581.000000	10.497033
-1570.800000	10.804048
-1560.600000	10.155267
-1550.400000	10.450720
-1540.200000	10.776050
-1530.000000	11.179275
-1519.800000	10.730634
-1509.600000	10.807432
-1499.400000	10.842391
-1489.200000	10.453424
-1479.000000	10.614139
-1468.800000	10.285926
-1458.600000	10.738082
-1448.400000	10.455801
-1438.200000	10.491781
-1428.000000	10.379335
-1417.800000	10.544862
-1407.600000	10.459700
-1397.400000	10.420970
-1387.200000	10.355831
-1377.000000	10.508353
-1366.800000	10.369916
-1356.600000	10.373718
-1346.400000	10.772998
-1336.200000	10.475388
-1326.000000	10.714358
-1315.800000	10.754868
-1305.600000	10.485825
-1295.400000	10.287785
-1285.200000	10.276180
-1275.000000	10.673078
-1264.800000	10.029731
-1254.600000	9.579865
-1244.400000	8.234447
-1234.200000	7.419856
-1224.000000	6.362688
-1213.800000	5.430433
-1203.600000	4.765344
-1193.400000	4.092417
-1183.200000	3.682580
-1173.000000	3.365246
-1162.800000	3.034521
-1152.600000	2.818513
-1142.400000	2.616444
-1132.200000	2.398140
-1122.000000	2.264231
-1111.800000	2.147963
-1101.600000	2.078449
-1091.400000	2.010436
-1081.200000	1.901236
-1071.000000	1.887680
-1060.800000	1.802268
-1050.600000	1.796003
-1040.400000	1.698023
-1030.200000	1.649338
-1020.000000	1.651591
-1009.800000	1.669712
-999.600000	1.655805
-989.400000	1.676191
-979.200000	1.674617
-969.000000	1.692036
-958.800000	1.666852
-948.600000	1.764284
-938.400000	1.765530
-928.200000	1.834143
-918.000000	1.912928
-907.800000	1.972642
-897.600000	2.115803
-887.400000	2.257858
-877.200000	2.292861
-867.000000	2.459266
-856.800000	2.632955
-846.600000	2.833220
-836.400000	3.078665
-826.200000	3.483607
-816.000000	3.771996
-805.800000	4.192967
-795.600000	4.599119
-785.400000	5.529817
-775.200000	6.306832
-765.000000	7.153372
-754.800000	8.632052
-744.600000	9.797590
-734.400000	9.669568
-724.200000	10.528690
-714.000000	10.562258
-703.800000	10.576644
-693.600000	10.884939
-683.400000	10.698492
-673.200000	10.189887
-663.000000	10.597821
-652.800000	10.837541
-642.600000	11.063237
-632.400000	10.553844
-622.200000	10.564146
-612.000000	10.696583
-601.800000	10.729094
-591.600000	10.343031
-581.400000	10.596528
-571.200000	10.573546
-561.000000	10.406358
-550.800000	10.821931
-540.600000	10.893019
-530.400000	10.611338
-520.200000	10.632800
-510.000000	10.768701
-499.800000	10.016777
-489.600000	10.727849
-479.400000	10.617115
-469.200000	10.628128
-459.000000	10.380880
-448.800000	10.846595
-438.600000	10.552729
-428.400000	10.454980
-418.200000	10.713536
-408.000000	10.768406
-397.800000	10.542256
-387.600000	10.601672
-377.400000	10.440161
-367.200000	10.591888
-357.000000	10.620573
-346.800000	10.685211
-336.600000	10.587320
-326.400000	10.405745
-316.200000	10.858952
-306.000000	10.633004
-295.800000	10.378948
-285.600000	10.509415
-275.400000	9.938361
-265.200000	10.324430
-255.000000	9.223689
-244.800000	8.538161
-234.600000	7.368485
-224.400000	6.359726
-214.200000	5.296064
-204.000000	4.980644
-193.800000	4.300543
-183.600000	3.716242
-173.400000	3.310784
-163.200000	3.037377
-153.000000	2.758468
-142.800000	2.633608
-132.600000	2.443437
-122.400000	2.322149
-112.200000	2.221484
-102.000000	2.062683
-91.800000	1.975253
-81.600000	1.951570
-71.400000	1.874558
-61.200000	1.790971
-51.000000	1.748387
-40.800000	1.687499
-30.600000	1.683317
-20.400000	1.654596
-10.200000	1.677654
0.000000	1.652025
10.200000	1.669620
20.400000	1.684435
30.600000	1.679113
40.800000	1.709027
51.000000	1.705659
61.200000	1.831932
71.400000	1.820307
81.600000	1.876667
91.800000	1.959001
102.000000	2.053114
112.200000	2.240418
122.400000	2.254377
132.600000	2.394803
142.800000	2.584806
153.000000	2.840936
163.200000	3.071325
173.400000	3.314959
183.600000	3.685624
193.800000	4.040567
204.000000	4.853905
214.200000	5.422062
224.400000	6.409518
234.600000	7.593949
244.800000	8.632673
255.000000	9.458476
265.200000	10.076763
275.400000	9.977599
285.600000	10.194916
295.800000	10.365345
306.000000	10.432773
316.200000	10.534824
326.400000	10.467648
336.600000	10.310472
346.800000	10.637519
357.000000	10.484810
367.200000	10.601009
377.400000	10.783878
387.600000	10.813428
397.800000	10.465006
408.000000	10.892453
418.200000	10.595837
428.400000	10.579020
438.600000	10.626307
448.800000	10.120682
459.000000	10.156792
469.200000	10.793858
479.400000	10.620050
489.600000	10.257153
499.800000	10.505994
510.000000	10.643406
520.200000	10.492104
530.400000	10.364071
540.600000	10.721221
550.800000	10.579140
561.000000	10.592183
571.200000	10.574251
581.400000	10.401694
591.600000	10.721424
601.800000	10.826487
612.000000	10.770659
622.200000	10.733433
632.400000	10.395107
642.600000	10.434449
652.800000	10.664175
663.000000	10.356253
673.200000	10.635096
683.400000	10.730059
693.600000	10.666040
703.800000	10.407485
714.000000	10.481837
724.200000	10.287659
734.400000	10.058470
744.600000	9.672333
754.800000	8.622059
765.000000	7.234879
775.200000	6.715523
785.400000	5.388265
795.600000	4.752335
805.800000	4.158976
816.000000	3.659118
826.200000	3.415078
836.400000	3.095389
846.600000	2.800258
856.800000	2.532316
867.000000	2.515057
877.200000	2.336580
887.400000	2.131122
897.600000	2.050711
907.800000	1.984563
918.000000	1.923115
928.200000	1.841994
938.400000	1.813485
948.600000	1.762308
958.800000	1.732477
969.000000	1.708716
979.200000	1.676566
989.400000	1.648893
999.600000	1.654858
1009.800000	1.684035
1020.000000	1.680098
1030.200000	1.727335
1040.400000	1.750672
1050.600000	1.707813
1060.800000	1.825379
1071.000000	1.843092
1081.200000	1.879250
1091.400000	1.976233
1101.600000	2.081605
1111.800000	2.210838
1122.000000	2.320040
1132.200000	2.494241
1142.400000	2.616161
1152.600000	2.757171
1162.800000	3.037650
1173.000000	3.400509
1183.200000	3.669122
1193.400000	4.169149
1203.600000	4.564582
1213.800000	5.336492
1224.000000	6.329076
1234.200000	7.187624
1244.400000	8.208592
1254.600000	9.756590
1264.800000	9.956616
1275.000000	10.337152
1285.200000	10.235573
1295.400000	10.446380
1305.600000	10.519679
1315.800000	10.572229
1326.000000	10.769964
1336.200000	10.520776
1346.400000	10.697457
1356.600000	10.486988
1366.800000	10.579458
1377.000000	10.708739
1387.200000	10.512963
1397.400000	10.814765
1407.600000	10.710811
1417.800000	10.628287
1428.000000	10.648406
1438.200000	10.546159
1448.400000	10.623211
1458.600000	10.748494
1468.800000	10.532420
1479.000000	10.879021
1489.200000	10.852595
1499.400000	10.518788
1509.600000	10.678472
1519.800000	10.568165
1530.000000	10.357050
1540.200000	10.547268
1550.400000	10.486925
1560.600000	10.452312
1570.800000	10.528297
1581.000000	10.452688
1591.200000	10.571537
1601.400000	10.277483
1611.600000	10.572307
1621.800000	10.399781
1632.000000	10.208259
1642.200000	10.638084
1652.400000	10.555614
1662.600000	10.715989
1672.800000	10.410255
1683.000000	10.708932
1693.200000	10.704022
1703.400000	10.402461
1713.600000	10.051045
1723.800000	10.127711
1734.000000	9.418735
1744.200000	9.398685
1754.400000	8.053323
1764.600000	7.512331
1774.800000	6.665290
1785.000000	5.656232
1795.200000	4.758821
1805.400000	4.157535
1815.600000	3.845642
1825.800000	3.477497
1836.000000	3.008784
1846.200000	2.723540
1856.400000	2.651709
1866.600000	2.388395
1876.800000	2.270599
1887.000000	2.180460
1897.200000	2.092730
1907.400000	2.075030
1917.600000	1.931293
1927.800000	1.817370
1938.000000	1.831037
1948.200000	1.784776
1958.400000	1.725325
1968.600000	1.679825
1978.800000	1.699703
1989.000000	1.639184
1999.200000	1.699517
2009.400000	1.679201
2019.600000	1.680847
2029.800000	1.669393
2040.000000	1.665208
2050.200000	1.757941
2060.400000	1.771598
2070.600000	1.915221
2080.800000	1.868579
2091.000000	1.956981
2101.200000	2.036809
2111.400000	2.122433
2121.600000	2.280886
2131.800000	2.424064
2142.000000	2.599320
2152.200000	2.750359
2162.400000	2.960765
2172.600000	3.417587
2182.800000	3.675073
2193.000000	4.158474
2203.200000	4.685325
2213.400000	5.469493
2223.600000	6.299864
2233.800000	7.231450
2244.000000	8.638214
2254.200000	9.491266
2264.400000	9.511594
2274.600000	10.289158
2284.800000	10.521426
2295.000000	10.346249
2305.200000	10.564197
2315.400000	10.740614
2325.600000	10.776615
2335.800000	10.524046
2346.000000	10.721550
2356.200000	10.593839
2366.400000	10.550328
2376.600000	10.270680
2386.800000	11.006836
2397.000000	10.499890
2407.200000	10.775883
2417.400000	10.594879
2427.600000	10.310242
2437.800000	10.617506
2448.000000	10.569884
2458.200000	10.611616
2468.400000	10.499413
2478.600000	10.451227
2488.800000	10.581727
2499.000000	11.054038
2509.200000	10.881208
2519.400000	10.258329
2529.600000	10.402022
2539.800000	10.663979
2550.000000	10.458929
2560.200000	10.755948
2570.400000	10.401467
2580.600000	10.719062
2590.800000	10.581869
2601.000000	10.314069
2611.200000	10.648615
2621.400000	10.803053
2631.600000	10.717249
2641.800000	10.530032
2652.000000	10.558798
2662.200000	10.288620
2672.400000	10.494620
2682.600000	10.740843
2692.800000	10.325301
2703.000000	10.541459
2713.200000	10.557362
2723.400000	10.156016
2733.600000	10.458823
2743.800000	9.265291
2754.000000	8.649900
2764.200000	7.701577
2774.400000	6.477117
2784.600000	5.530763
2794.800000	4.744795
2805.000000	4.368822
2815.200000	3.890280
2825.400000	3.394900
2835.600000	3.103667
2845.800000	2.840578
2856.000000	2.597162
2866.200000	2.439854
2876.400000	2.309820
2886.600000	2.281246
2896.800000	2.039553
2907.000000	1.965142
2917.200000	1.909956
2927.400000	1.942824
2937.600000	1.801645
2947.800000	1.758907
2958.000000	1.735018
2968.200000	1.710429
2978.400000	1.691768
2988.600000	1.651658
2998.800000	1.627842
3009.000000	1.700398
3019.200000	1.707736
3029.400000	1.661611
3039.600000	1.765775
3049.800000	1.733136
3060.000000	1.769962
3070.200000	1.850714
3080.400000	1.877567
3090.600000	2.015548
3100.800000	2.068974
3111.000000	2.167082
3121.200000	2.271313
3131.400000	2.405796
3141.600000	2.632374
3151.800000	2.853356
3162.000000	2.979436
3172.200000	3.459352
3182.400000	3.760919
3192.600000	4.080208
3202.800000	4.732622
3213.000000	5.452370
3223.200000	6.380746
3233.400000	7.226898
3243.600000	8.463683
3253.800000	9.441600
3264.000000	9.776806
3274.200000	9.935665
3284.400000	10.793008
3294.600000	10.616601
3304.800000	10.363940
3315.000000	10.484518
3325.200000	10.600089
3335.400000	10.439355
3345.600000	10.745018
3355.800000	10.501257
3366.000000	10.594954
3376.200000	10.446010
3386.400000	10.561166
3396.600000	10.678898
3406.800000	10.694421
3417.000000	10.865634
3427.200000	10.778620
3437.400000	10.684857
3447.600000	10.836396
3457.800000	10.635568
3468.000000	10.610311
3478.200000	10.836893
3488.400000	10.701850
3498.600000	10.989084
3508.800000	10.752098
3519.000000	10.352512
3529.200000	10.828909
3539.400000	10.565169
3549.600000	10.773383
3559.800000	10.595482
3570.000000	10.463653
3580.200000	10.707073
3590.400000	10.718339
3600.600000	10.302319
3610.800000	10.696101
3621.000000	11.010107
3631.200000	11.071185
3641.400000	10.458317
3651.600000	10.502630
3661.800000	10.286102
3672.000000	11.120648
3682.200000	10.817584
3692.400000	10.626265
3702.600000	10.659386
3712.800000	10.640007
3723.000000	10.306414
3733.200000	10.015999
3743.400000	9.399186
3753.600000	8.689451
3763.800000	7.243206
3774.000000	6.497432
3784.200000	5.598545
3794.400000	4.760764
3804.600000	4.297701
3814.800000	3.685791
3825.000000	3.344172
3835.200000	3.066272
3845.400000	2.797816
3855.600000	2.480935
3865.800000	2.439282
3876.000000	2.275374
3886.200000	2.073854
3896.400000	1.950569
3906.600000	1.801644
3916.800000	1.643840
3927.000000	1.640544
3937.200000	1.548447
3947.400000	1.550097
3957.600000	1.429857
3967.800000	1.329479
3978.000000	1.326747
3988.200000	1.209368
3998.400000	1.273448
4008.600000	1.163827
4018.800000	1.090801
4029.000000	1.090991
4039.200000	1.061424
4049.400000	1.031124
4059.600000	1.017213
4069.800000	0.971884
4080.000000	0.990783
4090.200000	0.926831
4100.400000	0.939297
4110.600000	0.860716
4120.800000	0.875526
4131.000000	0.808138
4141.200000	0.820665
4151.400000	0.800517
4161.600000	0.799925
4171.800000	0.790820
4182.000000	0.744618
4192.200000	0.716874
4202.400000	0.719974
4212.600000	0.722654
4222.800000	0.696644
4233.000000	0.691132
4243.200000	0.669718
4253.400000	0.651697
4263.600000	0.656362
4273.800000	0.639389
4284.000000	0.635898
4294.200000	0.624540
4304.400000	0.610451
4314.600000	0.589066
4324.800000	0.585655
4335.000000	0.579541
4345.200000	0.558586
4355.400000	0.567464
4365.600000	0.571328
4375.800000	0.548334
4386.000000	0.541482
4396.200000	0.534124
4406.400000	0.526389
4416.600000	0.532924
4426.800000	0.529682
4437.000000	0.513133
4447.200000	0.486177
4457.400000	0.497929
4467.600000	0.492491
4477.800000	0.489378
4488.000000	0.482618
4498.200000	0.473334
4508.400000	0.450973
4518.600000	0.478664
4528.800000	0.461137
4539.000000	0.466594
4549.200000	0.430385
4559.400000	0.458782
4569.600000	0.456231
4579.800000	0.444598
4590.000000	0.423609
4600.200000	0.427909
4610.400000	0.415414
4620.600000	0.415315
4630.800000	0.405148
4641.000000	0.405287
4651.200000	0.414979
4661.400000	0.402636
4671.600000	0.402174
4681.800000	0.396792
4692.000000	0.389294
4702.200000	0.400245
4712.400000	0.373433
4722.600000	0.379485
4732.800000	0.383067
4743.000000	0.372676
4753.200000	0.389592
4763.400000	0.379351
4773.600000	0.367693
4783.800000	0.354888
4794.000000	0.371244
4804.200000	0.353689
4814.400000	0.356754
4824.600000	0.337476
4834.800000	0.351320
4845.000000	0.351242
4855.200000	0.345337
4865.400000	0.341891
4875.600000	0.339386
4885.800000	0.335959
4896.000000	0.329226
4906.200000	0.331048
4916.400000	0.326961
4926.600000	0.330239
4936.800000	0.323472
4947.000000	0.325682
4957.200000	0.316583
4967.400000	0.322619
4977.600000	0.313706
4987.800000	0.322758
4998.000000	0.308482
5008.200000	0.313407
5018.400000	0.318761
5028.600000	0.308084
5038.800000	0.305436
5049.000000	0.303473
5059.200000	0.304322
5069.400000	0.307296
5079.600000	0.291776
5089.800000	0.291005
5100.000000	0.295103
